Angle (deg),Magnitude (dB),Phase (deg)
0.0,-5.13741,-38.7948
0.1,-5.13742,-38.7949
0.2,-5.13744,-38.7951
0.3,-5.13749,-38.7953
0.4,-5.13755,-38.7957
0.5,-5.13762,-38.7962
0.6,-5.13771,-38.7968
0.7,-5.13782,-38.7976
0.8,-5.13795,-38.7984
0.9,-5.1381,-38.7993
1.0,-5.13826,-38.8004
1.1,-5.13843,-38.8016
1.2,-5.13863,-38.8029
1.3,-5.13884,-38.8043
1.4,-5.13907,-38.8058
1.5,-5.13931,-38.8074
1.6,-5.13958,-38.8091
1.7,-5.13986,-38.811
1.8,-5.14015,-38.8129
1.9,-5.14046,-38.815
2.0,-5.1408,-38.8172
2.1,-5.14114,-38.8195
2.2,-5.14151,-38.8219
2.3,-5.14189,-38.8244
2.4,-5.14229,-38.827
2.5,-5.1427,-38.8297
2.6,-5.14313,-38.8326
2.7,-5.14358,-38.8356
2.8,-5.14405,-38.8386
2.9,-5.14453,-38.8418
3.0,-5.14503,-38.8451
3.1,-5.14555,-38.8485
3.2,-5.14608,-38.8521
3.3,-5.14663,-38.8557
3.4,-5.1472,-38.8595
3.5,-5.14778,-38.8633
3.6,-5.14839,-38.8673
3.7,-5.149,-38.8714
3.8,-5.14964,-38.8756
3.9,-5.15029,-38.8799
4.0,-5.15096,-38.8844
4.1,-5.15165,-38.8889
4.2,-5.15236,-38.8936
4.3,-5.15308,-38.8983
4.4,-5.15381,-38.9032
4.5,-5.15457,-38.9082
4.6,-5.15534,-38.9133
4.7,-5.15613,-38.9186
4.8,-5.15694,-38.9239
4.9,-5.15776,-38.9294
5.0,-5.1586,-38.935
5.1,-5.15946,-38.9406
5.2,-5.16034,-38.9464
5.3,-5.16123,-38.9524
5.4,-5.16214,-38.9584
5.5,-5.16306,-38.9645
5.6,-5.16401,-38.9708
5.7,-5.16497,-38.9772
5.8,-5.16595,-38.9837
5.9,-5.16694,-38.9903
6.0,-5.16796,-38.997
6.1,-5.16899,-39.0038
6.2,-5.17003,-39.0108
6.3,-5.1711,-39.0179
6.4,-5.17218,-39.025
6.5,-5.17328,-39.0323
6.6,-5.17439,-39.0398
6.7,-5.17553,-39.0473
6.8,-5.17668,-39.055
6.9,-5.17784,-39.0627
7.0,-5.17903,-39.0706
7.1,-5.18023,-39.0786
7.2,-5.18145,-39.0868
7.3,-5.18269,-39.095
7.4,-5.18394,-39.1034
7.5,-5.18521,-39.1118
7.6,-5.1865,-39.1204
7.7,-5.18781,-39.1291
7.8,-5.18914,-39.138
7.9,-5.19048,-39.1469
8.0,-5.19184,-39.156
8.1,-5.19321,-39.1652
8.2,-5.19461,-39.1745
8.3,-5.19602,-39.1839
8.4,-5.19745,-39.1935
8.5,-5.19889,-39.2031
8.6,-5.20036,-39.2129
8.7,-5.20184,-39.2228
8.8,-5.20334,-39.2329
8.9,-5.20485,-39.243
9.0,-5.20639,-39.2533
9.1,-5.20794,-39.2637
9.2,-5.20951,-39.2742
9.3,-5.21109,-39.2848
9.4,-5.2127,-39.2956
9.5,-5.21432,-39.3065
9.6,-5.21596,-39.3175
9.7,-5.21762,-39.3286
9.8,-5.21929,-39.3399
9.9,-5.22098,-39.3512
10.0,-5.22269,-39.3627
10.1,-5.22442,-39.3743
10.2,-5.22617,-39.3861
10.3,-5.22793,-39.3979
10.4,-5.22971,-39.4099
10.5,-5.23151,-39.4221
10.6,-5.23333,-39.4343
10.7,-5.23517,-39.4467
10.8,-5.23702,-39.4592
10.9,-5.23889,-39.4718
11.0,-5.24078,-39.4845
11.1,-5.24268,-39.4974
11.2,-5.24461,-39.5104
11.3,-5.24655,-39.5235
11.4,-5.24851,-39.5368
11.5,-5.25049,-39.5501
11.6,-5.25249,-39.5636
11.7,-5.2545,-39.5773
11.8,-5.25653,-39.591
11.9,-5.25858,-39.6049
12.0,-5.26065,-39.6189
12.1,-5.26274,-39.6331
12.2,-5.26484,-39.6474
12.3,-5.26697,-39.6618
12.4,-5.26911,-39.6763
12.5,-5.27127,-39.691
12.6,-5.27345,-39.7058
12.7,-5.27564,-39.7207
12.8,-5.27786,-39.7358
12.9,-5.28009,-39.751
13.0,-5.28234,-39.7663
13.1,-5.28461,-39.7818
13.2,-5.28689,-39.7974
13.3,-5.2892,-39.8131
13.4,-5.29152,-39.8289
13.5,-5.29387,-39.8449
13.6,-5.29623,-39.8611
13.7,-5.29861,-39.8773
13.8,-5.301,-39.8937
13.9,-5.30342,-39.9102
14.0,-5.30585,-39.9269
14.1,-5.30831,-39.9437
14.2,-5.31078,-39.9607
14.3,-5.31327,-39.9777
14.4,-5.31578,-39.9949
14.5,-5.31831,-40.0123
14.6,-5.32085,-40.0298
14.7,-5.32342,-40.0474
14.8,-5.326,-40.0652
14.9,-5.3286,-40.0831
15.0,-5.33122,-40.1011
15.1,-5.33386,-40.1193
15.2,-5.33652,-40.1376
15.3,-5.3392,-40.1561
15.4,-5.3419,-40.1747
15.5,-5.34461,-40.1935
15.6,-5.34735,-40.2124
15.7,-5.3501,-40.2314
15.8,-5.35287,-40.2506
15.9,-5.35566,-40.2699
16.0,-5.35847,-40.2893
16.1,-5.3613,-40.309
16.2,-5.36415,-40.3287
16.3,-5.36702,-40.3486
16.4,-5.3699,-40.3686
16.5,-5.37281,-40.3888
16.6,-5.37573,-40.4092
16.7,-5.37868,-40.4297
16.8,-5.38164,-40.4503
16.9,-5.38462,-40.4711
17.0,-5.38762,-40.492
17.1,-5.39064,-40.5131
17.2,-5.39368,-40.5343
17.3,-5.39674,-40.5557
17.4,-5.39982,-40.5772
17.5,-5.40292,-40.5989
17.6,-5.40604,-40.6207
17.7,-5.40918,-40.6427
17.8,-5.41233,-40.6648
17.9,-5.41551,-40.6871
18.0,-5.41871,-40.7095
18.1,-5.42192,-40.7321
18.2,-5.42516,-40.7549
18.3,-5.42841,-40.7778
18.4,-5.43169,-40.8008
18.5,-5.43498,-40.824
18.6,-5.43829,-40.8474
18.7,-5.44163,-40.8709
18.8,-5.44498,-40.8946
18.9,-5.44835,-40.9184
19.0,-5.45175,-40.9425
19.1,-5.45516,-40.9666
19.2,-5.45859,-40.9909
19.3,-5.46205,-41.0154
19.4,-5.46552,-41.0401
19.5,-5.46901,-41.0649
19.6,-5.47253,-41.0898
19.7,-5.47606,-41.115
19.8,-5.47961,-41.1402
19.9,-5.48319,-41.1657
20.0,-5.48678,-41.1913
20.1,-5.49039,-41.2171
20.2,-5.49403,-41.2431
20.3,-5.49768,-41.2692
20.4,-5.50136,-41.2955
20.5,-5.50505,-41.3219
20.6,-5.50877,-41.3486
20.7,-5.51251,-41.3753
20.8,-5.51626,-41.4023
20.9,-5.52004,-41.4294
21.0,-5.52384,-41.4567
21.1,-5.52765,-41.4842
21.2,-5.53149,-41.5119
21.3,-5.53535,-41.5397
21.4,-5.53923,-41.5677
21.5,-5.54313,-41.5959
21.6,-5.54706,-41.6242
21.7,-5.551,-41.6527
21.8,-5.55496,-41.6814
21.9,-5.55894,-41.7103
22.0,-5.56295,-41.7393
22.1,-5.56698,-41.7686
22.2,-5.57102,-41.798
22.3,-5.57509,-41.8276
22.4,-5.57918,-41.8573
22.5,-5.58329,-41.8873
22.6,-5.58742,-41.9174
22.7,-5.59157,-41.9478
22.8,-5.59574,-41.9783
22.9,-5.59994,-42.0089
23.0,-5.60415,-42.0398
23.1,-5.60839,-42.0709
23.2,-5.61265,-42.1021
23.3,-5.61693,-42.1336
23.4,-5.62123,-42.1652
23.5,-5.62555,-42.197
23.6,-5.6299,-42.229
23.7,-5.63426,-42.2612
23.8,-5.63865,-42.2936
23.9,-5.64306,-42.3261
24.0,-5.64749,-42.3589
24.1,-5.65194,-42.3919
24.2,-5.65641,-42.425
24.3,-5.66091,-42.4584
24.4,-5.66543,-42.492
24.5,-5.66997,-42.5257
24.6,-5.67453,-42.5597
24.7,-5.67911,-42.5938
24.8,-5.68371,-42.6281
24.9,-5.68834,-42.6627
25.0,-5.69299,-42.6974
25.1,-5.69766,-42.7324
25.2,-5.70235,-42.7676
25.3,-5.70707,-42.8029
25.4,-5.71181,-42.8385
25.5,-5.71657,-42.8743
25.6,-5.72135,-42.9103
25.7,-5.72615,-42.9465
25.8,-5.73098,-42.9829
25.9,-5.73583,-43.0195
26.0,-5.7407,-43.0563
26.1,-5.74559,-43.0933
26.2,-5.75051,-43.1306
26.3,-5.75545,-43.168
26.4,-5.76041,-43.2057
26.5,-5.76539,-43.2436
26.6,-5.7704,-43.2817
26.7,-5.77543,-43.3201
26.8,-5.78048,-43.3586
26.9,-5.78555,-43.3974
27.0,-5.79065,-43.4364
27.1,-5.79577,-43.4756
27.2,-5.80091,-43.515
27.3,-5.80608,-43.5547
27.4,-5.81127,-43.5946
27.5,-5.81648,-43.6347
27.6,-5.82172,-43.6751
27.7,-5.82698,-43.7156
27.8,-5.83226,-43.7564
27.9,-5.83756,-43.7975
28.0,-5.84289,-43.8387
28.1,-5.84824,-43.8802
28.2,-5.85362,-43.922
28.3,-5.85902,-43.9639
28.4,-5.86444,-44.0061
28.5,-5.86988,-44.0486
28.6,-5.87535,-44.0913
28.7,-5.88084,-44.1342
28.8,-5.88636,-44.1774
28.9,-5.8919,-44.2208
29.0,-5.89746,-44.2644
29.1,-5.90305,-44.3083
29.2,-5.90866,-44.3525
29.3,-5.91429,-44.3969
29.4,-5.91995,-44.4415
29.5,-5.92563,-44.4864
29.6,-5.93134,-44.5316
29.7,-5.93707,-44.577
29.8,-5.94282,-44.6226
29.9,-5.9486,-44.6685
30.0,-5.9544,-44.7147
30.1,-5.96022,-44.7611
30.2,-5.96607,-44.8078
30.3,-5.97195,-44.8547
30.4,-5.97785,-44.9019
30.5,-5.98377,-44.9494
30.6,-5.98972,-44.9971
30.7,-5.99569,-45.0451
30.8,-6.00168,-45.0934
30.9,-6.0077,-45.1419
31.0,-6.01375,-45.1908
31.1,-6.01982,-45.2398
31.2,-6.02591,-45.2892
31.3,-6.03203,-45.3388
31.4,-6.03817,-45.3887
31.5,-6.04434,-45.4389
31.6,-6.05053,-45.4893
31.7,-6.05675,-45.5401
31.8,-6.06299,-45.5911
31.9,-6.06926,-45.6424
32.0,-6.07555,-45.694
32.1,-6.08186,-45.7459
32.2,-6.08821,-45.798
32.3,-6.09457,-45.8505
32.4,-6.10096,-45.9032
32.5,-6.10738,-45.9563
32.6,-6.11382,-46.0096
32.7,-6.12029,-46.0632
32.8,-6.12678,-46.1172
32.9,-6.1333,-46.1714
33.0,-6.13984,-46.2259
33.1,-6.14641,-46.2807
33.2,-6.153,-46.3359
33.3,-6.15962,-46.3913
33.4,-6.16626,-46.4471
33.5,-6.17293,-46.5031
33.6,-6.17962,-46.5595
33.7,-6.18634,-46.6162
33.8,-6.19309,-46.6732
33.9,-6.19986,-46.7305
34.0,-6.20666,-46.7881
34.1,-6.21348,-46.846
34.2,-6.22033,-46.9043
34.3,-6.2272,-46.9629
34.4,-6.2341,-47.0218
34.5,-6.24102,-47.0811
34.6,-6.24797,-47.1407
34.7,-6.25495,-47.2006
34.8,-6.26195,-47.2608
34.9,-6.26898,-47.3214
35.0,-6.27604,-47.3823
35.1,-6.28312,-47.4435
35.2,-6.29022,-47.5051
35.3,-6.29735,-47.567
35.4,-6.30451,-47.6293
35.5,-6.3117,-47.6919
35.6,-6.3189,-47.7549
35.7,-6.32614,-47.8182
35.8,-6.3334,-47.8819
35.9,-6.34069,-47.9459
36.0,-6.34801,-48.0103
36.1,-6.35535,-48.0751
36.2,-6.36271,-48.1402
36.3,-6.37011,-48.2056
36.4,-6.37752,-48.2715
36.5,-6.38497,-48.3377
36.6,-6.39244,-48.4042
36.7,-6.39994,-48.4712
36.8,-6.40746,-48.5385
36.9,-6.41501,-48.6062
37.0,-6.42259,-48.6742
37.1,-6.43019,-48.7427
37.2,-6.43782,-48.8115
37.3,-6.44548,-48.8807
37.4,-6.45316,-48.9503
37.5,-6.46087,-49.0203
37.6,-6.4686,-49.0907
37.7,-6.47637,-49.1615
37.8,-6.48415,-49.2327
37.9,-6.49197,-49.3042
38.0,-6.49981,-49.3762
38.1,-6.50768,-49.4486
38.2,-6.51557,-49.5214
38.3,-6.52349,-49.5946
38.4,-6.53144,-49.6682
38.5,-6.53941,-49.7422
38.6,-6.54741,-49.8166
38.7,-6.55543,-49.8915
38.8,-6.56349,-49.9668
38.9,-6.57156,-50.0425
39.0,-6.57967,-50.1186
39.1,-6.5878,-50.1951
39.2,-6.59596,-50.2721
39.3,-6.60414,-50.3495
39.4,-6.61235,-50.4274
39.5,-6.62059,-50.5057
39.6,-6.62885,-50.5844
39.7,-6.63714,-50.6636
39.8,-6.64546,-50.7433
39.9,-6.6538,-50.8234
40.0,-6.66217,-50.9039
40.1,-6.67057,-50.9849
40.2,-6.67899,-51.0664
40.3,-6.68743,-51.1483
40.4,-6.69591,-51.2307
40.5,-6.70441,-51.3135
40.6,-6.71293,-51.3968
40.7,-6.72149,-51.4806
40.8,-6.73006,-51.5649
40.9,-6.73867,-51.6497
41.0,-6.7473,-51.7349
41.1,-6.75595,-51.8206
41.2,-6.76464,-51.9068
41.3,-6.77334,-51.9936
41.4,-6.78208,-52.0808
41.5,-6.79084,-52.1685
41.6,-6.79962,-52.2567
41.7,-6.80843,-52.3454
41.8,-6.81727,-52.4346
41.9,-6.82613,-52.5243
42.0,-6.83502,-52.6146
42.1,-6.84393,-52.7053
42.2,-6.85287,-52.7966
42.3,-6.86184,-52.8884
42.4,-6.87083,-52.9808
42.5,-6.87984,-53.0736
42.6,-6.88888,-53.167
42.7,-6.89794,-53.261
42.8,-6.90703,-53.3555
42.9,-6.91615,-53.4505
43.0,-6.92529,-53.5461
43.1,-6.93445,-53.6422
43.2,-6.94364,-53.7389
43.3,-6.95285,-53.8361
43.4,-6.96209,-53.9339
43.5,-6.97135,-54.0323
43.6,-6.98064,-54.1313
43.7,-6.98995,-54.2308
43.8,-6.99928,-54.3309
43.9,-7.00864,-54.4316
44.0,-7.01802,-54.5329
44.1,-7.02743,-54.6347
44.2,-7.03686,-54.7372
44.3,-7.04631,-54.8402
44.4,-7.05579,-54.9439
44.5,-7.06528,-55.0481
44.6,-7.07481,-55.153
44.7,-7.08435,-55.2585
44.8,-7.09392,-55.3646
44.9,-7.10351,-55.4713
45.0,-7.11312,-55.5787
45.1,-7.12276,-55.6866
45.2,-7.13241,-55.7953
45.3,-7.14209,-55.9045
45.4,-7.15179,-56.0144
45.5,-7.16151,-56.1249
45.6,-7.17126,-56.2361
45.7,-7.18102,-56.348
45.8,-7.19081,-56.4605
45.9,-7.20062,-56.5736
46.0,-7.21044,-56.6875
46.1,-7.22029,-56.802
46.2,-7.23016,-56.9172
46.3,-7.24005,-57.033
46.4,-7.24996,-57.1496
46.5,-7.25988,-57.2668
46.6,-7.26983,-57.3848
46.7,-7.2798,-57.5034
46.8,-7.28978,-57.6228
46.9,-7.29979,-57.7428
47.0,-7.30981,-57.8636
47.1,-7.31985,-57.9851
47.2,-7.32991,-58.1073
47.3,-7.33998,-58.2302
47.4,-7.35007,-58.3539
47.5,-7.36018,-58.4783
47.6,-7.37031,-58.6035
47.7,-7.38045,-58.7294
47.8,-7.39061,-58.856
47.9,-7.40079,-58.9834
48.0,-7.41098,-59.1116
48.1,-7.42119,-59.2405
48.2,-7.43141,-59.3702
48.3,-7.44164,-59.5007
48.4,-7.45189,-59.632
48.5,-7.46216,-59.7641
48.6,-7.47243,-59.8969
48.7,-7.48272,-60.0306
48.8,-7.49303,-60.165
48.9,-7.50334,-60.3003
49.0,-7.51367,-60.4364
49.1,-7.52401,-60.5733
49.2,-7.53436,-60.711
49.3,-7.54472,-60.8496
49.4,-7.55509,-60.989
49.5,-7.56547,-61.1292
49.6,-7.57586,-61.2703
49.7,-7.58626,-61.4122
49.8,-7.59667,-61.555
49.9,-7.60709,-61.6987
50.0,-7.61751,-61.8432
50.1,-7.62794,-61.9886
50.2,-7.63838,-62.1349
50.3,-7.64883,-62.282
50.4,-7.65928,-62.4301
50.5,-7.66973,-62.579
50.6,-7.68019,-62.7289
50.7,-7.69065,-62.8797
50.8,-7.70112,-63.0313
50.9,-7.71159,-63.184
51.0,-7.72206,-63.3375
51.1,-7.73254,-63.492
51.2,-7.74301,-63.6474
51.3,-7.75349,-63.8037
51.4,-7.76396,-63.961
51.5,-7.77444,-64.1193
51.6,-7.78491,-64.2785
51.7,-7.79538,-64.4387
51.8,-7.80585,-64.5998
51.9,-7.81631,-64.762
52.0,-7.82678,-64.9251
52.1,-7.83723,-65.0892
52.2,-7.84768,-65.2543
52.3,-7.85813,-65.4205
52.4,-7.86856,-65.5876
52.5,-7.87899,-65.7558
52.6,-7.88941,-65.9249
52.7,-7.89983,-66.0952
52.8,-7.91023,-66.2664
52.9,-7.92062,-66.4387
53.0,-7.931,-66.612
53.1,-7.94136,-66.7864
53.2,-7.95172,-66.9619
53.3,-7.96205,-67.1384
53.4,-7.97238,-67.316
53.5,-7.98268,-67.4947
53.6,-7.99297,-67.6745
53.7,-8.00324,-67.8553
53.8,-8.0135,-68.0373
53.9,-8.02373,-68.2203
54.0,-8.03394,-68.4045
54.1,-8.04413,-68.5898
54.2,-8.0543,-68.7762
54.3,-8.06444,-68.9638
54.4,-8.07456,-69.1525
54.5,-8.08465,-69.3423
54.6,-8.09471,-69.5333
54.7,-8.10475,-69.7254
54.8,-8.11476,-69.9187
54.9,-8.12473,-70.1132
55.0,-8.13468,-70.3088
55.1,-8.14459,-70.5056
55.2,-8.15446,-70.7037
55.3,-8.1643,-70.9029
55.4,-8.17411,-71.1033
55.5,-8.18388,-71.3049
55.6,-8.1936,-71.5077
55.7,-8.20329,-71.7117
55.8,-8.21294,-71.917
55.9,-8.22254,-72.1235
56.0,-8.2321,-72.3312
56.1,-8.24161,-72.5402
56.2,-8.25108,-72.7504
56.3,-8.26049,-72.9619
56.4,-8.26986,-73.1747
56.5,-8.27918,-73.3887
56.6,-8.28844,-73.6039
56.7,-8.29765,-73.8205
56.8,-8.3068,-74.0383
56.9,-8.31589,-74.2575
57.0,-8.32493,-74.4779
57.1,-8.3339,-74.6996
57.2,-8.34282,-74.9226
57.3,-8.35167,-75.147
57.4,-8.36045,-75.3726
57.5,-8.36917,-75.5996
57.6,-8.37781,-75.8279
57.7,-8.38639,-76.0575
57.8,-8.3949,-76.2885
57.9,-8.40333,-76.5208
58.0,-8.41168,-76.7545
58.1,-8.41996,-76.9895
58.2,-8.42816,-77.2258
58.3,-8.43628,-77.4635
58.4,-8.44431,-77.7026
58.5,-8.45226,-77.9431
58.6,-8.46012,-78.1849
58.7,-8.46789,-78.4281
58.8,-8.47558,-78.6727
58.9,-8.48317,-78.9187
59.0,-8.49066,-79.1661
59.1,-8.49806,-79.4148
59.2,-8.50536,-79.665
59.3,-8.51256,-79.9165
59.4,-8.51966,-80.1695
59.5,-8.52665,-80.4239
59.6,-8.53353,-80.6796
59.7,-8.54031,-80.9368
59.8,-8.54697,-81.1954
59.9,-8.55352,-81.4555
60.0,-8.55995,-81.7169
60.1,-8.56627,-81.9798
60.2,-8.57247,-82.2441
60.3,-8.57854,-82.5098
60.4,-8.58449,-82.7769
60.5,-8.59031,-83.0455
60.6,-8.596,-83.3155
60.7,-8.60156,-83.587
60.8,-8.60699,-83.8598
60.9,-8.61228,-84.1341
61.0,-8.61742,-84.4099
61.1,-8.62243,-84.6871
61.2,-8.6273,-84.9657
61.3,-8.63202,-85.2457
61.4,-8.63659,-85.5272
61.5,-8.64101,-85.8102
61.6,-8.64527,-86.0945
61.7,-8.64938,-86.3803
61.8,-8.65333,-86.6675
61.9,-8.65712,-86.9562
62.0,-8.66074,-87.2463
62.1,-8.6642,-87.5378
62.2,-8.66749,-87.8307
62.3,-8.67061,-88.1251
62.4,-8.67355,-88.4209
62.5,-8.67632,-88.7181
62.6,-8.67891,-89.0167
62.7,-8.68131,-89.3167
62.8,-8.68353,-89.6181
62.9,-8.68557,-89.921
63.0,-8.68741,-90.2252
63.1,-8.68906,-90.5309
63.2,-8.69051,-90.8379
63.3,-8.69177,-91.1463
63.4,-8.69283,-91.4561
63.5,-8.69368,-91.7673
63.6,-8.69433,-92.0798
63.7,-8.69477,-92.3937
63.8,-8.69499,-92.709
63.9,-8.695,-93.0256
64.0,-8.6948,-93.3435
64.1,-8.69438,-93.6628
64.2,-8.69373,-93.9834
64.3,-8.69286,-94.3054
64.4,-8.69176,-94.6286
64.5,-8.69043,-94.9532
64.6,-8.68887,-95.279
64.7,-8.68707,-95.6062
64.8,-8.68504,-95.9346
64.9,-8.68276,-96.2642
65.0,-8.68024,-96.5952
65.1,-8.67748,-96.9273
65.2,-8.67447,-97.2607
65.3,-8.6712,-97.5954
65.4,-8.66769,-97.9312
65.5,-8.66391,-98.2682
65.6,-8.65988,-98.6065
65.7,-8.65559,-98.9459
65.8,-8.65103,-99.2864
65.9,-8.64621,-99.6281
66.0,-8.64112,-99.971
66.1,-8.63575,-100.315
66.2,-8.63012,-100.66
66.3,-8.62421,-101.006
66.4,-8.61802,-101.353
66.5,-8.61155,-101.702
66.6,-8.6048,-102.051
66.7,-8.59777,-102.402
66.8,-8.59045,-102.753
66.9,-8.58284,-103.105
67.0,-8.57494,-103.459
67.1,-8.56674,-103.813
67.2,-8.55825,-104.168
67.3,-8.54947,-104.525
67.4,-8.54038,-104.882
67.5,-8.531,-105.24
67.6,-8.52131,-105.599
67.7,-8.51131,-105.959
67.8,-8.50101,-106.319
67.9,-8.49041,-106.681
68.0,-8.47949,-107.043
68.1,-8.46826,-107.406
68.2,-8.45672,-107.77
68.3,-8.44487,-108.135
68.4,-8.43269,-108.5
68.5,-8.42021,-108.866
68.6,-8.4074,-109.233
68.7,-8.39427,-109.6
68.8,-8.38082,-109.968
68.9,-8.36705,-110.337
69.0,-8.35296,-110.706
69.1,-8.33854,-111.076
69.2,-8.32379,-111.447
69.3,-8.30872,-111.818
69.4,-8.29332,-112.189
69.5,-8.27759,-112.561
69.6,-8.26153,-112.934
69.7,-8.24514,-113.307
69.8,-8.22842,-113.68
69.9,-8.21137,-114.054
70.0,-8.19399,-114.428
70.1,-8.17628,-114.803
70.2,-8.15823,-115.178
70.3,-8.13985,-115.553
70.4,-8.12113,-115.928
70.5,-8.10209,-116.304
70.6,-8.08271,-116.68
70.7,-8.06299,-117.057
70.8,-8.04294,-117.433
70.9,-8.02255,-117.81
71.0,-8.00184,-118.187
71.1,-7.98078,-118.564
71.2,-7.9594,-118.941
71.3,-7.93768,-119.318
71.4,-7.91563,-119.696
71.5,-7.89324,-120.073
71.6,-7.87052,-120.45
71.7,-7.84747,-120.828
71.8,-7.82409,-121.205
71.9,-7.80038,-121.583
72.0,-7.77634,-121.96
72.1,-7.75197,-122.338
72.2,-7.72727,-122.715
72.3,-7.70225,-123.092
72.4,-7.67689,-123.469
72.5,-7.65122,-123.846
72.6,-7.62521,-124.223
72.7,-7.59889,-124.599
72.8,-7.57224,-124.975
72.9,-7.54527,-125.351
73.0,-7.51798,-125.727
73.1,-7.49038,-126.103
73.2,-7.46245,-126.478
73.3,-7.43421,-126.853
73.4,-7.40566,-127.228
73.5,-7.37679,-127.602
73.6,-7.34761,-127.976
73.7,-7.31813,-128.349
73.8,-7.28833,-128.723
73.9,-7.25823,-129.095
74.0,-7.22783,-129.468
74.1,-7.19712,-129.839
74.2,-7.16611,-130.211
74.3,-7.1348,-130.582
74.4,-7.1032,-130.952
74.5,-7.0713,-131.322
74.6,-7.0391,-131.691
74.7,-7.00662,-132.06
74.8,-6.97385,-132.429
74.9,-6.94079,-132.796
75.0,-6.90744,-133.163
75.1,-6.87382,-133.53
75.2,-6.83991,-133.896
75.3,-6.80573,-134.261
75.4,-6.77126,-134.626
75.5,-6.73653,-134.99
75.6,-6.70152,-135.353
75.7,-6.66625,-135.716
75.8,-6.6307,-136.078
75.9,-6.5949,-136.439
76.0,-6.55883,-136.8
76.1,-6.5225,-137.159
76.2,-6.48592,-137.519
76.3,-6.44908,-137.877
76.4,-6.41198,-138.235
76.5,-6.37464,-138.591
76.6,-6.33705,-138.948
76.7,-6.29922,-139.303
76.8,-6.26114,-139.658
76.9,-6.22282,-140.011
77.0,-6.18427,-140.364
77.1,-6.14548,-140.716
77.2,-6.10646,-141.068
77.3,-6.06721,-141.418
77.4,-6.02773,-141.768
77.5,-5.98802,-142.117
77.6,-5.9481,-142.465
77.7,-5.90795,-142.813
77.8,-5.86759,-143.159
77.9,-5.82702,-143.505
78.0,-5.78623,-143.849
78.1,-5.74523,-144.193
78.2,-5.70403,-144.536
78.3,-5.66262,-144.878
78.4,-5.62101,-145.22
78.5,-5.5792,-145.56
78.6,-5.53719,-145.9
78.7,-5.49499,-146.238
78.8,-5.4526,-146.576
78.9,-5.41002,-146.913
79.0,-5.36725,-147.249
79.1,-5.3243,-147.585
79.2,-5.28117,-147.919
79.3,-5.23786,-148.252
79.4,-5.19437,-148.585
79.5,-5.15071,-148.917
79.6,-5.10688,-149.248
79.7,-5.06287,-149.578
79.8,-5.0187,-149.907
79.9,-4.97437,-150.235
80.0,-4.92987,-150.562
80.1,-4.88522,-150.889
80.2,-4.8404,-151.215
80.3,-4.79544,-151.54
80.4,-4.75032,-151.864
80.5,-4.70505,-152.187
80.6,-4.65963,-152.509
80.7,-4.61406,-152.83
80.8,-4.56836,-153.151
80.9,-4.52251,-153.471
81.0,-4.47652,-153.79
81.1,-4.4304,-154.108
81.2,-4.38414,-154.425
81.3,-4.33775,-154.741
81.4,-4.29123,-155.057
81.5,-4.24458,-155.372
81.6,-4.1978,-155.686
81.7,-4.15091,-155.999
81.8,-4.10389,-156.311
81.9,-4.05675,-156.623
82.0,-4.00949,-156.934
82.1,-3.96212,-157.244
82.2,-3.91464,-157.553
82.3,-3.86704,-157.862
82.4,-3.81934,-158.169
82.5,-3.77152,-158.476
82.6,-3.72361,-158.783
82.7,-3.67558,-159.088
82.8,-3.62746,-159.393
82.9,-3.57924,-159.697
83.0,-3.53092,-160.0
83.1,-3.4825,-160.303
83.2,-3.43399,-160.605
83.3,-3.38539,-160.906
83.4,-3.3367,-161.207
83.5,-3.28792,-161.507
83.6,-3.23905,-161.806
83.7,-3.1901,-162.104
83.8,-3.14106,-162.402
83.9,-3.09194,-162.7
84.0,-3.04274,-162.996
84.1,-2.99347,-163.292
84.2,-2.94411,-163.588
84.3,-2.89468,-163.882
84.4,-2.84518,-164.176
84.5,-2.79561,-164.47
84.6,-2.74597,-164.763
84.7,-2.69625,-165.055
84.8,-2.64648,-165.347
84.9,-2.59663,-165.639
85.0,-2.54672,-165.929
85.1,-2.49675,-166.22
85.2,-2.44672,-166.509
85.3,-2.39663,-166.799
85.4,-2.34648,-167.087
85.5,-2.29628,-167.375
85.6,-2.24602,-167.663
85.7,-2.1957,-167.95
85.8,-2.14534,-168.237
85.9,-2.09492,-168.523
86.0,-2.04446,-168.809
86.1,-1.99394,-169.095
86.2,-1.94338,-169.38
86.3,-1.89278,-169.664
86.4,-1.84213,-169.948
86.5,-1.79143,-170.232
86.6,-1.7407,-170.516
86.7,-1.68993,-170.799
86.8,-1.63911,-171.081
86.9,-1.58827,-171.364
87.0,-1.53738,-171.646
87.1,-1.48646,-171.927
87.2,-1.4355,-172.209
87.3,-1.38452,-172.49
87.4,-1.3335,-172.77
87.5,-1.28245,-173.051
87.6,-1.23138,-173.331
87.7,-1.18027,-173.611
87.8,-1.12914,-173.89
87.9,-1.07799,-174.17
88.0,-1.02681,-174.449
88.1,-0.975608,-174.728
88.2,-0.924385,-175.007
88.3,-0.873141,-175.285
88.4,-0.821879,-175.563
88.5,-0.770598,-175.842
88.6,-0.719301,-176.12
88.7,-0.667987,-176.397
88.8,-0.61666,-176.675
88.9,-0.565319,-176.953
89.0,-0.513965,-177.23
89.1,-0.4626,-177.507
89.2,-0.411225,-177.785
89.3,-0.359842,-178.062
89.4,-0.30845,-178.339
89.5,-0.257052,-178.616
89.6,-0.205648,-178.893
89.7,-0.15424,-179.17
89.8,-0.102829,-179.446
89.9,-0.0514149,-179.723
90.0,-1.92865e-15,-180.0
