Angle (deg),Magnitude (dB),Phase (deg)
0.0,-5.45626,141.064
0.1,-5.45626,141.065
0.2,-5.45624,141.068
0.3,-5.45621,141.072
0.4,-5.45618,141.078
0.5,-5.45613,141.085
0.6,-5.45607,141.094
0.7,-5.456,141.105
0.8,-5.45592,141.117
0.9,-5.45584,141.131
1.0,-5.45574,141.147
1.1,-5.45563,141.164
1.2,-5.45551,141.183
1.3,-5.45538,141.204
1.4,-5.45525,141.226
1.5,-5.4551,141.25
1.6,-5.45495,141.276
1.7,-5.45479,141.303
1.8,-5.45462,141.332
1.9,-5.45445,141.362
2.0,-5.45426,141.394
2.1,-5.45408,141.428
2.2,-5.45388,141.464
2.3,-5.45368,141.501
2.4,-5.45347,141.539
2.5,-5.45326,141.58
2.6,-5.45305,141.622
2.7,-5.45283,141.666
2.8,-5.45261,141.711
2.9,-5.45239,141.758
3.0,-5.45216,141.806
3.1,-5.45194,141.857
3.2,-5.45171,141.909
3.3,-5.45148,141.962
3.4,-5.45126,142.017
3.5,-5.45103,142.074
3.6,-5.45081,142.133
3.7,-5.45059,142.193
3.8,-5.45038,142.255
3.9,-5.45017,142.318
4.0,-5.44996,142.383
4.1,-5.44976,142.45
4.2,-5.44957,142.518
4.3,-5.44939,142.588
4.4,-5.44921,142.66
4.5,-5.44905,142.733
4.6,-5.44889,142.808
4.7,-5.44875,142.885
4.8,-5.44862,142.963
4.9,-5.4485,143.043
5.0,-5.4484,143.124
5.1,-5.44832,143.207
5.2,-5.44825,143.292
5.3,-5.4482,143.378
5.4,-5.44817,143.466
5.5,-5.44816,143.556
5.6,-5.44817,143.647
5.7,-5.4482,143.74
5.8,-5.44826,143.835
5.9,-5.44835,143.931
6.0,-5.44846,144.029
6.1,-5.4486,144.129
6.2,-5.44876,144.23
6.3,-5.44896,144.333
6.4,-5.44919,144.437
6.5,-5.44945,144.543
6.6,-5.44975,144.651
6.7,-5.45009,144.76
6.8,-5.45046,144.871
6.9,-5.45087,144.984
7.0,-5.45132,145.098
7.1,-5.45181,145.214
7.2,-5.45235,145.331
7.3,-5.45294,145.45
7.4,-5.45357,145.571
7.5,-5.45425,145.694
7.6,-5.45498,145.818
7.7,-5.45576,145.943
7.8,-5.45659,146.071
7.9,-5.45749,146.2
8.0,-5.45843,146.33
8.1,-5.45944,146.463
8.2,-5.46051,146.597
8.3,-5.46165,146.732
8.4,-5.46284,146.869
8.5,-5.46411,147.008
8.6,-5.46544,147.149
8.7,-5.46685,147.291
8.8,-5.46833,147.435
8.9,-5.46988,147.58
9.0,-5.47151,147.727
9.1,-5.47322,147.876
9.2,-5.47501,148.026
9.3,-5.47689,148.178
9.4,-5.47885,148.332
9.5,-5.4809,148.487
9.6,-5.48304,148.644
9.7,-5.48527,148.803
9.8,-5.4876,148.963
9.9,-5.49003,149.125
10.0,-5.49256,149.289
10.1,-5.49519,149.454
10.2,-5.49792,149.621
10.3,-5.50077,149.789
10.4,-5.50372,149.959
10.5,-5.50679,150.131
10.6,-5.50998,150.305
10.7,-5.51328,150.48
10.8,-5.51671,150.657
10.9,-5.52026,150.836
11.0,-5.52393,151.016
11.1,-5.52774,151.198
11.2,-5.53169,151.381
11.3,-5.53577,151.567
11.4,-5.53999,151.754
11.5,-5.54435,151.942
11.6,-5.54886,152.133
11.7,-5.55351,152.325
11.8,-5.55833,152.518
11.9,-5.56329,152.714
12.0,-5.56842,152.911
12.1,-5.57371,153.11
12.2,-5.57917,153.31
12.3,-5.5848,153.512
12.4,-5.59061,153.716
12.5,-5.59659,153.922
12.6,-5.60275,154.129
12.7,-5.6091,154.339
12.8,-5.61564,154.549
12.9,-5.62238,154.762
13.0,-5.62931,154.976
13.1,-5.63645,155.192
13.2,-5.64379,155.41
13.3,-5.65135,155.63
13.4,-5.65912,155.851
13.5,-5.66711,156.074
13.6,-5.67533,156.299
13.7,-5.68377,156.525
13.8,-5.69246,156.754
13.9,-5.70138,156.984
14.0,-5.71055,157.216
14.1,-5.71997,157.449
14.2,-5.72964,157.685
14.3,-5.73957,157.922
14.4,-5.74978,158.161
14.5,-5.76025,158.402
14.6,-5.771,158.645
14.7,-5.78204,158.889
14.8,-5.79337,159.136
14.9,-5.80499,159.384
15.0,-5.81691,159.634
15.1,-5.82915,159.886
15.2,-5.8417,160.14
15.3,-5.85457,160.395
15.4,-5.86777,160.653
15.5,-5.88131,160.912
15.6,-5.89519,161.173
15.7,-5.90942,161.437
15.8,-5.92402,161.702
15.9,-5.93897,161.969
16.0,-5.95431,162.237
16.1,-5.97002,162.508
16.2,-5.98613,162.781
16.3,-6.00263,163.056
16.4,-6.01954,163.332
16.5,-6.03687,163.611
16.6,-6.05463,163.891
16.7,-6.07282,164.174
16.8,-6.09146,164.458
16.9,-6.11055,164.745
17.0,-6.13011,165.033
17.1,-6.15014,165.324
17.2,-6.17066,165.616
17.3,-6.19168,165.91
17.4,-6.21321,166.207
17.5,-6.23526,166.506
17.6,-6.25784,166.806
17.7,-6.28097,167.109
17.8,-6.30465,167.414
17.9,-6.32891,167.721
18.0,-6.35375,168.029
18.1,-6.37919,168.341
18.2,-6.40523,168.654
18.3,-6.43191,168.969
18.4,-6.45923,169.286
18.5,-6.4872,169.606
18.6,-6.51585,169.927
18.7,-6.54518,170.251
18.8,-6.57522,170.577
18.9,-6.60599,170.905
19.0,-6.63749,171.236
19.1,-6.66976,171.568
19.2,-6.7028,171.903
19.3,-6.73664,172.24
19.4,-6.7713,172.579
19.5,-6.8068,172.92
19.6,-6.84316,173.264
19.7,-6.8804,173.609
19.8,-6.91855,173.957
19.9,-6.95763,174.308
20.0,-6.99766,174.66
20.1,-7.03868,175.015
20.2,-7.08069,175.372
20.3,-7.12375,175.731
20.4,-7.16786,176.092
20.5,-7.21306,176.456
20.6,-7.25938,176.822
20.7,-7.30686,177.19
20.8,-7.35552,177.56
20.9,-7.40539,177.933
21.0,-7.45652,178.308
21.1,-7.50893,178.685
21.2,-7.56267,179.064
21.3,-7.61778,179.446
21.4,-7.67428,179.829
21.5,-7.73224,-179.785
21.6,-7.79168,-179.397
21.7,-7.85266,-179.007
21.8,-7.91522,-178.615
21.9,-7.97941,-178.221
22.0,-8.04528,-177.824
22.1,-8.11289,-177.426
22.2,-8.18229,-177.026
22.3,-8.25353,-176.624
22.4,-8.32668,-176.22
22.5,-8.4018,-175.814
22.6,-8.47896,-175.406
22.7,-8.55822,-174.997
22.8,-8.63966,-174.586
22.9,-8.72335,-174.173
23.0,-8.80937,-173.759
23.1,-8.89779,-173.344
23.2,-8.98872,-172.927
23.3,-9.08223,-172.509
23.4,-9.17843,-172.09
23.5,-9.27741,-171.67
23.6,-9.37927,-171.249
23.7,-9.48413,-170.828
23.8,-9.59211,-170.406
23.9,-9.70332,-169.984
24.0,-9.81789,-169.562
24.1,-9.93597,-169.14
24.2,-10.0577,-168.719
24.3,-10.1832,-168.298
24.4,-10.3127,-167.878
24.5,-10.4463,-167.46
24.6,-10.5842,-167.043
24.7,-10.7266,-166.628
24.8,-10.8738,-166.216
24.9,-11.0258,-165.807
25.0,-11.183,-165.401
25.1,-11.3457,-165.0
25.2,-11.514,-164.603
25.3,-11.6883,-164.212
25.4,-11.8688,-163.827
25.5,-12.056,-163.45
25.6,-12.2501,-163.08
25.7,-12.4516,-162.721
25.8,-12.6609,-162.371
25.9,-12.8783,-162.035
26.0,-13.1045,-161.711
26.1,-13.3399,-161.404
26.2,-13.5851,-161.114
26.3,-13.8408,-160.844
26.4,-14.1076,-160.598
26.5,-14.3863,-160.377
26.6,-14.6777,-160.186
26.7,-14.9828,-160.029
26.8,-15.3026,-159.911
26.9,-15.6382,-159.838
27.0,-15.9908,-159.817
27.1,-16.3619,-159.855
27.2,-16.753,-159.964
27.3,-17.1658,-160.154
27.4,-17.6022,-160.44
27.5,-18.0644,-160.839
27.6,-18.5545,-161.374
27.7,-19.0753,-162.072
27.8,-19.6293,-162.966
27.9,-20.2193,-164.1
28.0,-20.8481,-165.53
28.1,-21.5177,-167.326
28.2,-22.2294,-169.58
28.3,-22.9817,-172.411
28.4,-23.7692,-175.969
28.5,-24.5781,179.563
28.6,-25.3818,173.978
28.7,-26.1337,167.085
28.8,-26.763,158.796
28.9,-27.1811,149.259
29.0,-27.3075,138.968
29.1,-27.1094,128.69
29.2,-26.6212,119.192
29.3,-25.9242,110.957
29.4,-25.1068,104.126
29.5,-24.2392,98.6058
29.6,-23.3674,94.2048
29.7,-22.5178,90.7162
29.8,-21.7038,87.9576
29.9,-20.9308,85.7795
30.0,-20.2001,84.0643
30.1,-19.5105,82.7207
30.2,-18.86,81.6779
30.3,-18.2458,80.8807
30.4,-17.6652,80.286
30.5,-17.1156,79.8599
30.6,-16.5944,79.5752
30.7,-16.0994,79.4102
30.8,-15.6284,79.3471
30.9,-15.1797,79.3716
31.0,-14.7515,79.4717
31.1,-14.3422,79.6375
31.2,-13.9507,79.8606
31.3,-13.5755,80.1341
31.4,-13.2156,80.452
31.5,-12.8701,80.8091
31.6,-12.5379,81.2011
31.7,-12.2184,81.6241
31.8,-11.9107,82.0748
31.9,-11.6141,82.5503
32.0,-11.3281,83.0481
32.1,-11.0521,83.5658
32.2,-10.7856,84.1015
32.3,-10.528,84.6533
32.4,-10.279,85.2197
32.5,-10.0382,85.7992
32.6,-9.80507,86.3904
32.7,-9.57938,86.9922
32.8,-9.36077,87.6036
32.9,-9.14895,88.2235
33.0,-8.94363,88.851
33.1,-8.74455,89.4853
33.2,-8.55145,90.1256
33.3,-8.3641,90.7714
33.4,-8.18229,91.4218
33.5,-8.0058,92.0763
33.6,-7.83444,92.7344
33.7,-7.66803,93.3955
33.8,-7.50639,94.0592
33.9,-7.34936,94.725
34.0,-7.19677,95.3925
34.1,-7.04848,96.0614
34.2,-6.90435,96.7312
34.3,-6.76423,97.4016
34.4,-6.628,98.0723
34.5,-6.49554,98.7431
34.6,-6.36673,99.4136
34.7,-6.24144,100.084
34.8,-6.11958,100.753
34.9,-6.00104,101.421
35.0,-5.88571,102.088
35.1,-5.77351,102.754
35.2,-5.66433,103.418
35.3,-5.55809,104.08
35.4,-5.45471,104.741
35.5,-5.35409,105.4
35.6,-5.25616,106.056
35.7,-5.16085,106.71
35.8,-5.06807,107.361
35.9,-4.97776,108.011
36.0,-4.88984,108.657
36.1,-4.80425,109.301
36.2,-4.72093,109.942
36.3,-4.6398,110.58
36.4,-4.56082,111.215
36.5,-4.48391,111.847
36.6,-4.40903,112.476
36.7,-4.33612,113.102
36.8,-4.26512,113.724
36.9,-4.19598,114.344
37.0,-4.12866,114.96
37.1,-4.0631,115.573
37.2,-3.99925,116.183
37.3,-3.93708,116.789
37.4,-3.87653,117.392
37.5,-3.81757,117.992
37.6,-3.76015,118.588
37.7,-3.70422,119.181
37.8,-3.64976,119.771
37.9,-3.59673,120.357
38.0,-3.54508,120.94
38.1,-3.49478,121.519
38.2,-3.4458,122.096
38.3,-3.3981,122.669
38.4,-3.35165,123.238
38.5,-3.30642,123.804
38.6,-3.26238,124.367
38.7,-3.2195,124.927
38.8,-3.17774,125.484
38.9,-3.13709,126.037
39.0,-3.09752,126.587
39.1,-3.05899,127.134
39.2,-3.02148,127.678
39.3,-2.98498,128.219
39.4,-2.94945,128.757
39.5,-2.91487,129.292
39.6,-2.88123,129.824
39.7,-2.84849,130.353
39.8,-2.81664,130.879
39.9,-2.78565,131.402
40.0,-2.75552,131.923
40.1,-2.72621,132.441
40.2,-2.69771,132.956
40.3,-2.67001,133.468
40.4,-2.64309,133.978
40.5,-2.61692,134.486
40.6,-2.5915,134.99
40.7,-2.5668,135.493
40.8,-2.54282,135.993
40.9,-2.51954,136.49
41.0,-2.49695,136.986
41.1,-2.47503,137.479
41.2,-2.45377,137.97
41.3,-2.43316,138.459
41.4,-2.41319,138.945
41.5,-2.39384,139.43
41.6,-2.3751,139.913
41.7,-2.35698,140.393
41.8,-2.33944,140.872
41.9,-2.3225,141.35
42.0,-2.30613,141.825
42.1,-2.29033,142.299
42.2,-2.27509,142.771
42.3,-2.2604,143.242
42.4,-2.24626,143.711
42.5,-2.23266,144.179
42.6,-2.2196,144.645
42.7,-2.20706,145.11
42.8,-2.19504,145.574
42.9,-2.18355,146.037
43.0,-2.17256,146.499
43.1,-2.16209,146.959
43.2,-2.15212,147.419
43.3,-2.14265,147.878
43.4,-2.13369,148.336
43.5,-2.12522,148.793
43.6,-2.11725,149.25
43.7,-2.10977,149.706
43.8,-2.10279,150.162
43.9,-2.09629,150.617
44.0,-2.0903,151.072
44.1,-2.08479,151.527
44.2,-2.07978,151.981
44.3,-2.07527,152.435
44.4,-2.07125,152.89
44.5,-2.06773,153.344
44.6,-2.06472,153.799
44.7,-2.06222,154.254
44.8,-2.06023,154.709
44.9,-2.05875,155.165
45.0,-2.0578,155.621
45.1,-2.05737,156.078
45.2,-2.05748,156.535
45.3,-2.05813,156.994
45.4,-2.05933,157.453
45.5,-2.06109,157.914
45.6,-2.06342,158.376
45.7,-2.06633,158.839
45.8,-2.06983,159.303
45.9,-2.07393,159.769
46.0,-2.07866,160.237
46.1,-2.08401,160.707
46.2,-2.09001,161.178
46.3,-2.09668,161.652
46.4,-2.10402,162.127
46.5,-2.11207,162.606
46.6,-2.12084,163.086
46.7,-2.13035,163.57
46.8,-2.14063,164.056
46.9,-2.15169,164.545
47.0,-2.16358,165.037
47.1,-2.17631,165.533
47.2,-2.18992,166.032
47.3,-2.20444,166.535
47.4,-2.21991,167.042
47.5,-2.23636,167.553
47.6,-2.25382,168.068
47.7,-2.27235,168.588
47.8,-2.29199,169.112
47.9,-2.31279,169.642
48.0,-2.3348,170.177
48.1,-2.35807,170.717
48.2,-2.38266,171.263
48.3,-2.40865,171.815
48.4,-2.43609,172.374
48.5,-2.46506,172.939
48.6,-2.49563,173.511
48.7,-2.5279,174.09
48.8,-2.56195,174.676
48.9,-2.59788,175.271
49.0,-2.63579,175.873
49.1,-2.6758,176.484
49.2,-2.71802,177.105
49.3,-2.7626,177.734
49.4,-2.80966,178.373
49.5,-2.85936,179.022
49.6,-2.91187,179.681
49.7,-2.96737,-179.648
49.8,-3.02604,-178.967
49.9,-3.08809,-178.273
50.0,-3.15376,-177.567
50.1,-3.22329,-176.849
50.2,-3.29694,-176.118
50.3,-3.37502,-175.373
50.4,-3.45784,-174.614
50.5,-3.54574,-173.841
50.6,-3.63911,-173.053
50.7,-3.73836,-172.25
50.8,-3.84396,-171.431
50.9,-3.9564,-170.597
51.0,-4.07624,-169.746
51.1,-4.20407,-168.879
51.2,-4.34059,-167.995
51.3,-4.48652,-167.095
51.4,-4.6427,-166.179
51.5,-4.81003,-165.247
51.6,-4.98953,-164.3
51.7,-5.18235,-163.338
51.8,-5.38975,-162.362
51.9,-5.61316,-161.375
52.0,-5.85421,-160.379
52.1,-6.1147,-159.375
52.2,-6.39671,-158.369
52.3,-6.70259,-157.364
52.4,-7.03507,-156.367
52.5,-7.39726,-155.386
52.6,-7.79278,-154.431
52.7,-8.22588,-153.516
52.8,-8.70153,-152.658
52.9,-9.22564,-151.882
53.0,-9.8053,-151.218
53.1,-10.449,-150.709
53.2,-11.1671,-150.416
53.3,-11.9722,-150.425
53.4,-12.8796,-150.862
53.5,-13.9071,-151.917
53.6,-15.0744,-153.887
53.7,-16.3975,-157.249
53.8,-17.8719,-162.778
53.9,-19.4218,-171.651
54.0,-20.788,174.802
54.1,-21.4442,156.759
54.2,-20.9746,138.054
54.3,-19.6473,123.253
54.4,-18.0246,113.368
54.5,-16.4358,107.22
54.6,-14.9908,103.532
54.7,-13.706,101.431
54.8,-12.5688,100.373
54.9,-11.5599,100.022
55.0,-10.6611,100.16
55.1,-9.8567,100.647
55.2,-9.13353,101.384
55.3,-8.48085,102.304
55.4,-7.88973,103.355
55.5,-7.35276,104.502
55.6,-6.86369,105.716
55.7,-6.41723,106.977
55.8,-6.00884,108.267
55.9,-5.6346,109.574
56.0,-5.2911,110.886
56.1,-4.97535,112.197
56.2,-4.68472,113.5
56.3,-4.41686,114.789
56.4,-4.16969,116.061
56.5,-3.94136,117.313
56.6,-3.7302,118.542
56.7,-3.5347,119.746
56.8,-3.35352,120.925
56.9,-3.18544,122.077
57.0,-3.02936,123.202
57.1,-2.88428,124.3
57.2,-2.74929,125.37
57.3,-2.62357,126.414
57.4,-2.50638,127.43
57.5,-2.39703,128.419
57.6,-2.29491,129.383
57.7,-2.19945,130.321
57.8,-2.11014,131.234
57.9,-2.0265,132.123
58.0,-1.94811,132.989
58.1,-1.87458,133.832
58.2,-1.80554,134.652
58.3,-1.74067,135.452
58.4,-1.67966,136.23
58.5,-1.62224,136.989
58.6,-1.56815,137.728
58.7,-1.51716,138.448
58.8,-1.46906,139.151
58.9,-1.42364,139.836
59.0,-1.38073,140.505
59.1,-1.34016,141.158
59.2,-1.30176,141.794
59.3,-1.26541,142.417
59.4,-1.23097,143.024
59.5,-1.19831,143.618
59.6,-1.16732,144.199
59.7,-1.1379,144.766
59.8,-1.10995,145.321
59.9,-1.08338,145.865
60.0,-1.0581,146.396
60.1,-1.03405,146.917
60.2,-1.01115,147.427
60.3,-0.989323,147.927
60.4,-0.968518,148.417
60.5,-0.948673,148.897
60.6,-0.929735,149.368
60.7,-0.911653,149.83
60.8,-0.894379,150.284
60.9,-0.877871,150.729
61.0,-0.862087,151.166
61.1,-0.846989,151.596
61.2,-0.83254,152.018
61.3,-0.818708,152.433
61.4,-0.805461,152.841
61.5,-0.792769,153.243
61.6,-0.780605,153.638
61.7,-0.768943,154.026
61.8,-0.757759,154.409
61.9,-0.74703,154.786
62.0,-0.736734,155.157
62.1,-0.726852,155.523
62.2,-0.717366,155.884
62.3,-0.708256,156.239
62.4,-0.699506,156.59
62.5,-0.691102,156.936
62.6,-0.683028,157.278
62.7,-0.67527,157.615
62.8,-0.667816,157.948
62.9,-0.660653,158.277
63.0,-0.65377,158.602
63.1,-0.647155,158.923
63.2,-0.6408,159.24
63.3,-0.634694,159.554
63.4,-0.628829,159.865
63.5,-0.623196,160.172
63.6,-0.617788,160.476
63.7,-0.612596,160.778
63.8,-0.607615,161.076
63.9,-0.602838,161.372
64.0,-0.598259,161.665
64.1,-0.593872,161.955
64.2,-0.589673,162.243
64.3,-0.585657,162.529
64.4,-0.581819,162.812
64.5,-0.578155,163.094
64.6,-0.574662,163.373
64.7,-0.571337,163.651
64.8,-0.568177,163.927
64.9,-0.565179,164.201
65.0,-0.562341,164.473
65.1,-0.559661,164.745
65.2,-0.557137,165.015
65.3,-0.554769,165.283
65.4,-0.552556,165.551
65.5,-0.550496,165.817
65.6,-0.54859,166.083
65.7,-0.546838,166.348
65.8,-0.545241,166.613
65.9,-0.543799,166.877
66.0,-0.542514,167.14
66.1,-0.541387,167.403
66.2,-0.540421,167.666
66.3,-0.539617,167.929
66.4,-0.53898,168.193
66.5,-0.538513,168.456
66.6,-0.538219,168.72
66.7,-0.538103,168.985
66.8,-0.538171,169.25
66.9,-0.538428,169.516
67.0,-0.538882,169.783
67.1,-0.539538,170.052
67.2,-0.540407,170.322
67.3,-0.541495,170.594
67.4,-0.542814,170.867
67.5,-0.544375,171.143
67.6,-0.54619,171.421
67.7,-0.548272,171.702
67.8,-0.550636,171.985
67.9,-0.5533,172.272
68.0,-0.556281,172.562
68.1,-0.5596,172.856
68.2,-0.56328,173.154
68.3,-0.567345,173.457
68.4,-0.571823,173.765
68.5,-0.576745,174.078
68.6,-0.582146,174.397
68.7,-0.588065,174.722
68.8,-0.594543,175.054
68.9,-0.60163,175.394
69.0,-0.609379,175.742
69.1,-0.617852,176.098
69.2,-0.627118,176.465
69.3,-0.637253,176.842
69.4,-0.648348,177.231
69.5,-0.660502,177.632
69.6,-0.673831,178.047
69.7,-0.688466,178.477
69.8,-0.70456,178.924
69.9,-0.722288,179.389
70.0,-0.741852,179.874
70.1,-0.763492,-179.619
70.2,-0.787482,-179.088
70.3,-0.814151,-178.531
70.4,-0.843883,-177.943
70.5,-0.877138,-177.323
70.6,-0.914465,-176.666
70.7,-0.956525,-175.968
70.8,-1.00412,-175.224
70.9,-1.05822,-174.429
71.0,-1.12004,-173.576
71.1,-1.19106,-172.659
71.2,-1.27316,-171.668
71.3,-1.36868,-170.594
71.4,-1.48063,-169.426
71.5,-1.61289,-168.152
71.6,-1.7705,-166.757
71.7,-1.96013,-165.228
71.8,-2.19068,-163.549
71.9,-2.47419,-161.706
72.0,-2.82722,-159.692
72.1,-3.2728,-157.511
72.2,-3.8435,-155.195
72.3,-4.58602,-152.836
72.4,-5.56816,-150.651
72.5,-6.88866,-149.131
72.6,-8.68556,-149.419
72.7,-11.0972,-154.318
72.8,-13.8323,-170.396
72.9,-14.6035,158.708
73.0,-12.1666,135.16
73.1,-9.35148,126.707
73.2,-7.16809,125.459
73.3,-5.56556,127.067
73.4,-4.38955,129.746
73.5,-3.5178,132.731
73.6,-2.86348,135.681
73.7,-2.36584,138.451
73.8,-1.98229,140.99
73.9,-1.68279,143.289
74.0,-1.44597,145.36
74.1,-1.25646,147.223
74.2,-1.10309,148.9
74.3,-0.977671,150.414
74.4,-0.874088,151.785
74.5,-0.78776,153.03
74.6,-0.715202,154.164
74.7,-0.653734,155.202
74.8,-0.601278,156.155
74.9,-0.556206,157.033
75.0,-0.517229,157.844
75.1,-0.48332,158.596
75.2,-0.453654,159.296
75.3,-0.427562,159.948
75.4,-0.404498,160.559
75.5,-0.384013,161.132
75.6,-0.365737,161.67
75.7,-0.349361,162.177
75.8,-0.334628,162.656
75.9,-0.321321,163.11
76.0,-0.309257,163.54
76.1,-0.298279,163.948
76.2,-0.288256,164.337
76.3,-0.279074,164.708
76.4,-0.270635,165.062
76.5,-0.262854,165.401
76.6,-0.255658,165.726
76.7,-0.248984,166.037
76.8,-0.242777,166.336
76.9,-0.236987,166.623
77.0,-0.231572,166.9
77.1,-0.226495,167.167
77.2,-0.221722,167.424
77.3,-0.217225,167.673
77.4,-0.212976,167.913
77.5,-0.208953,168.146
77.6,-0.205136,168.372
77.7,-0.201506,168.59
77.8,-0.198045,168.802
77.9,-0.194741,169.008
78.0,-0.191578,169.208
78.1,-0.188546,169.403
78.2,-0.185633,169.592
78.3,-0.182829,169.777
78.4,-0.180127,169.957
78.5,-0.177517,170.132
78.6,-0.174992,170.303
78.7,-0.172546,170.47
78.8,-0.170173,170.633
78.9,-0.167867,170.793
79.0,-0.165623,170.948
79.1,-0.163437,171.101
79.2,-0.161304,171.25
79.3,-0.159221,171.396
79.4,-0.157183,171.539
79.5,-0.155188,171.68
79.6,-0.153233,171.817
79.7,-0.151314,171.952
79.8,-0.14943,172.084
79.9,-0.147578,172.214
80.0,-0.145756,172.342
80.1,-0.143961,172.467
80.2,-0.142192,172.59
80.3,-0.140447,172.711
80.4,-0.138725,172.83
80.5,-0.137024,172.947
80.6,-0.135342,173.063
80.7,-0.133679,173.176
80.8,-0.132033,173.287
80.9,-0.130404,173.397
81.0,-0.128789,173.506
81.1,-0.127188,173.612
81.2,-0.125601,173.717
81.3,-0.124026,173.821
81.4,-0.122462,173.923
81.5,-0.120909,174.024
81.6,-0.119367,174.123
81.7,-0.117834,174.221
81.8,-0.116309,174.318
81.9,-0.114794,174.413
82.0,-0.113286,174.507
82.1,-0.111785,174.6
82.2,-0.110291,174.692
82.3,-0.108804,174.783
82.4,-0.107322,174.873
82.5,-0.105847,174.962
82.6,-0.104376,175.049
82.7,-0.102911,175.136
82.8,-0.10145,175.222
82.9,-0.0999934,175.307
83.0,-0.0985409,175.39
83.1,-0.0970923,175.473
83.2,-0.0956472,175.556
83.3,-0.0942054,175.637
83.4,-0.0927667,175.717
83.5,-0.0913309,175.797
83.6,-0.0898978,175.876
83.7,-0.0884673,175.954
83.8,-0.0870391,176.032
83.9,-0.0856131,176.108
84.0,-0.0841891,176.184
84.1,-0.0827671,176.26
84.2,-0.0813468,176.334
84.3,-0.0799282,176.408
84.4,-0.0785111,176.482
84.5,-0.0770954,176.555
84.6,-0.075681,176.627
84.7,-0.0742679,176.698
84.8,-0.0728559,176.77
84.9,-0.071445,176.84
85.0,-0.070035,176.91
85.1,-0.0686259,176.98
85.2,-0.0672176,177.049
85.3,-0.0658101,177.117
85.4,-0.0644033,177.185
85.5,-0.0629971,177.253
85.6,-0.0615916,177.32
85.7,-0.0601865,177.387
85.8,-0.058782,177.453
85.9,-0.0573779,177.519
86.0,-0.0559743,177.584
86.1,-0.054571,177.649
86.2,-0.0531681,177.714
86.3,-0.0517655,177.779
86.4,-0.0503632,177.843
86.5,-0.0489611,177.906
86.6,-0.0475593,177.97
86.7,-0.0461578,178.033
86.8,-0.0447564,178.095
86.9,-0.0433552,178.158
87.0,-0.0419543,178.22
87.1,-0.0405534,178.282
87.2,-0.0391528,178.343
87.3,-0.0377523,178.405
87.4,-0.0363519,178.466
87.5,-0.0349517,178.527
87.6,-0.0335516,178.587
87.7,-0.0321516,178.648
87.8,-0.0307518,178.708
87.9,-0.0293521,178.768
88.0,-0.0279525,178.828
88.1,-0.026553,178.888
88.2,-0.0251537,178.947
88.3,-0.0237546,179.007
88.4,-0.0223556,179.066
88.5,-0.0209567,179.125
88.6,-0.019558,179.184
88.7,-0.0181595,179.243
88.8,-0.0167612,179.301
88.9,-0.015363,179.36
89.0,-0.0139651,179.418
89.1,-0.0125674,179.477
89.2,-0.0111699,179.535
89.3,-0.00977263,179.593
89.4,-0.00837564,179.652
89.5,-0.00697893,179.71
89.6,-0.0055825,179.768
89.7,-0.00418637,179.826
89.8,-0.00279057,179.884
89.9,-0.00139511,179.942
90.0,-250.0,
