Angle (deg),Magnitude (dB),Phase (deg)
0.0,-4.27202,31.1188
0.1,-4.27203,31.1188
0.2,-4.27206,31.1189
0.3,-4.27212,31.1191
0.4,-4.27219,31.1193
0.5,-4.27228,31.1196
0.6,-4.2724,31.1199
0.7,-4.27254,31.1204
0.8,-4.27269,31.1209
0.9,-4.27287,31.1214
1.0,-4.27307,31.1221
1.1,-4.27329,31.1228
1.2,-4.27354,31.1235
1.3,-4.2738,31.1244
1.4,-4.27408,31.1253
1.5,-4.27439,31.1262
1.6,-4.27471,31.1272
1.7,-4.27506,31.1283
1.8,-4.27543,31.1295
1.9,-4.27582,31.1307
2.0,-4.27623,31.132
2.1,-4.27666,31.1334
2.2,-4.27711,31.1348
2.3,-4.27759,31.1363
2.4,-4.27808,31.1378
2.5,-4.2786,31.1395
2.6,-4.27914,31.1412
2.7,-4.2797,31.1429
2.8,-4.28028,31.1447
2.9,-4.28088,31.1466
3.0,-4.2815,31.1486
3.1,-4.28214,31.1506
3.2,-4.28281,31.1527
3.3,-4.28349,31.1549
3.4,-4.2842,31.1571
3.5,-4.28493,31.1594
3.6,-4.28568,31.1617
3.7,-4.28645,31.1641
3.8,-4.28724,31.1666
3.9,-4.28806,31.1692
4.0,-4.28889,31.1718
4.1,-4.28975,31.1745
4.2,-4.29063,31.1772
4.3,-4.29153,31.1801
4.4,-4.29245,31.1829
4.5,-4.29339,31.1859
4.6,-4.29435,31.1889
4.7,-4.29534,31.192
4.8,-4.29634,31.1951
4.9,-4.29737,31.1984
5.0,-4.29842,31.2016
5.1,-4.29949,31.205
5.2,-4.30059,31.2084
5.3,-4.3017,31.2119
5.4,-4.30284,31.2154
5.5,-4.304,31.2191
5.6,-4.30518,31.2227
5.7,-4.30638,31.2265
5.8,-4.3076,31.2303
5.9,-4.30885,31.2342
6.0,-4.31011,31.2381
6.1,-4.3114,31.2422
6.2,-4.31271,31.2462
6.3,-4.31404,31.2504
6.4,-4.3154,31.2546
6.5,-4.31677,31.2589
6.6,-4.31817,31.2632
6.7,-4.31959,31.2677
6.8,-4.32103,31.2721
6.9,-4.3225,31.2767
7.0,-4.32398,31.2813
7.1,-4.32549,31.286
7.2,-4.32702,31.2907
7.3,-4.32858,31.2955
7.4,-4.33015,31.3004
7.5,-4.33175,31.3054
7.6,-4.33337,31.3104
7.7,-4.33501,31.3155
7.8,-4.33667,31.3206
7.9,-4.33836,31.3258
8.0,-4.34007,31.3311
8.1,-4.3418,31.3365
8.2,-4.34355,31.3419
8.3,-4.34533,31.3474
8.4,-4.34713,31.3529
8.5,-4.34895,31.3585
8.6,-4.35079,31.3642
8.7,-4.35266,31.37
8.8,-4.35455,31.3758
8.9,-4.35646,31.3817
9.0,-4.3584,31.3876
9.1,-4.36036,31.3936
9.2,-4.36234,31.3997
9.3,-4.36434,31.4059
9.4,-4.36637,31.4121
9.5,-4.36842,31.4184
9.6,-4.37049,31.4247
9.7,-4.37259,31.4312
9.8,-4.37471,31.4376
9.9,-4.37685,31.4442
10.0,-4.37901,31.4508
10.1,-4.3812,31.4575
10.2,-4.38342,31.4643
10.3,-4.38565,31.4711
10.4,-4.38791,31.478
10.5,-4.39019,31.4849
10.6,-4.3925,31.4919
10.7,-4.39483,31.499
10.8,-4.39718,31.5062
10.9,-4.39956,31.5134
11.0,-4.40196,31.5207
11.1,-4.40439,31.5281
11.2,-4.40683,31.5355
11.3,-4.40931,31.543
11.4,-4.4118,31.5506
11.5,-4.41432,31.5582
11.6,-4.41687,31.5659
11.7,-4.41944,31.5736
11.8,-4.42203,31.5815
11.9,-4.42465,31.5894
12.0,-4.42729,31.5973
12.1,-4.42995,31.6054
12.2,-4.43264,31.6135
12.3,-4.43536,31.6216
12.4,-4.4381,31.6299
12.5,-4.44086,31.6382
12.6,-4.44365,31.6465
12.7,-4.44646,31.655
12.8,-4.4493,31.6635
12.9,-4.45216,31.6721
13.0,-4.45505,31.6807
13.1,-4.45796,31.6894
13.2,-4.4609,31.6982
13.3,-4.46386,31.707
13.4,-4.46685,31.7159
13.5,-4.46986,31.7249
13.6,-4.4729,31.7339
13.7,-4.47596,31.7431
13.8,-4.47905,31.7522
13.9,-4.48217,31.7615
14.0,-4.48531,31.7708
14.1,-4.48847,31.7802
14.2,-4.49166,31.7896
14.3,-4.49488,31.7992
14.4,-4.49812,31.8087
14.5,-4.50139,31.8184
14.6,-4.50469,31.8281
14.7,-4.50801,31.8379
14.8,-4.51135,31.8478
14.9,-4.51473,31.8577
15.0,-4.51813,31.8677
15.1,-4.52155,31.8778
15.2,-4.52501,31.8879
15.3,-4.52849,31.8981
15.4,-4.53199,31.9083
15.5,-4.53552,31.9187
15.6,-4.53908,31.9291
15.7,-4.54267,31.9395
15.8,-4.54628,31.9501
15.9,-4.54992,31.9607
16.0,-4.55359,31.9714
16.1,-4.55728,31.9821
16.2,-4.56101,31.9929
16.3,-4.56475,32.0038
16.4,-4.56853,32.0147
16.5,-4.57234,32.0257
16.6,-4.57617,32.0368
16.7,-4.58003,32.048
16.8,-4.58391,32.0592
16.9,-4.58783,32.0705
17.0,-4.59177,32.0818
17.1,-4.59574,32.0933
17.2,-4.59974,32.1048
17.3,-4.60377,32.1163
17.4,-4.60783,32.1279
17.5,-4.61191,32.1396
17.6,-4.61602,32.1514
17.7,-4.62017,32.1632
17.8,-4.62434,32.1751
17.9,-4.62854,32.1871
18.0,-4.63276,32.1991
18.1,-4.63702,32.2113
18.2,-4.64131,32.2234
18.3,-4.64562,32.2357
18.4,-4.64997,32.248
18.5,-4.65434,32.2604
18.6,-4.65875,32.2728
18.7,-4.66318,32.2853
18.8,-4.66765,32.2979
18.9,-4.67214,32.3106
19.0,-4.67666,32.3233
19.1,-4.68122,32.3361
19.2,-4.6858,32.3489
19.3,-4.69042,32.3619
19.4,-4.69506,32.3749
19.5,-4.69974,32.3879
19.6,-4.70444,32.4011
19.7,-4.70918,32.4143
19.8,-4.71395,32.4275
19.9,-4.71875,32.4409
20.0,-4.72358,32.4543
20.1,-4.72844,32.4678
20.2,-4.73333,32.4813
20.3,-4.73826,32.4949
20.4,-4.74321,32.5086
20.5,-4.7482,32.5224
20.6,-4.75322,32.5362
20.7,-4.75827,32.5501
20.8,-4.76335,32.564
20.9,-4.76847,32.5781
21.0,-4.77362,32.5922
21.1,-4.7788,32.6063
21.2,-4.78401,32.6206
21.3,-4.78926,32.6349
21.4,-4.79454,32.6492
21.5,-4.79985,32.6637
21.6,-4.80519,32.6782
21.7,-4.81057,32.6928
21.8,-4.81599,32.7074
21.9,-4.82143,32.7221
22.0,-4.82691,32.7369
22.1,-4.83242,32.7518
22.2,-4.83797,32.7667
22.3,-4.84355,32.7817
22.4,-4.84917,32.7967
22.5,-4.85482,32.8119
22.6,-4.8605,32.8271
22.7,-4.86622,32.8423
22.8,-4.87198,32.8577
22.9,-4.87777,32.8731
23.0,-4.88359,32.8886
23.1,-4.88945,32.9041
23.2,-4.89535,32.9197
23.3,-4.90128,32.9354
23.4,-4.90725,32.9511
23.5,-4.91325,32.967
23.6,-4.91929,32.9829
23.7,-4.92536,32.9988
23.8,-4.93148,33.0148
23.9,-4.93762,33.0309
24.0,-4.94381,33.0471
24.1,-4.95003,33.0633
24.2,-4.95629,33.0796
24.3,-4.96259,33.096
24.4,-4.96892,33.1125
24.5,-4.97529,33.129
24.6,-4.9817,33.1455
24.7,-4.98815,33.1622
24.8,-4.99464,33.1789
24.9,-5.00116,33.1957
25.0,-5.00772,33.2126
25.1,-5.01432,33.2295
25.2,-5.02096,33.2465
25.3,-5.02764,33.2635
25.4,-5.03436,33.2807
25.5,-5.04112,33.2979
25.6,-5.04792,33.3151
25.7,-5.05475,33.3325
25.8,-5.06163,33.3499
25.9,-5.06855,33.3674
26.0,-5.07551,33.3849
26.1,-5.0825,33.4025
26.2,-5.08954,33.4202
26.3,-5.09662,33.438
26.4,-5.10374,33.4558
26.5,-5.11091,33.4737
26.6,-5.11811,33.4916
26.7,-5.12536,33.5097
26.8,-5.13264,33.5278
26.9,-5.13997,33.5459
27.0,-5.14735,33.5642
27.1,-5.15476,33.5825
27.2,-5.16222,33.6008
27.3,-5.16972,33.6193
27.4,-5.17726,33.6378
27.5,-5.18485,33.6564
27.6,-5.19248,33.675
27.7,-5.20016,33.6937
27.8,-5.20787,33.7125
27.9,-5.21564,33.7314
28.0,-5.22345,33.7503
28.1,-5.2313,33.7693
28.2,-5.2392,33.7884
28.3,-5.24714,33.8075
28.4,-5.25513,33.8267
28.5,-5.26316,33.846
28.6,-5.27125,33.8653
28.7,-5.27937,33.8847
28.8,-5.28755,33.9042
28.9,-5.29577,33.9237
29.0,-5.30403,33.9433
29.1,-5.31235,33.963
29.2,-5.32071,33.9828
29.3,-5.32912,34.0026
29.4,-5.33758,34.0225
29.5,-5.34608,34.0424
29.6,-5.35464,34.0624
29.7,-5.36324,34.0825
29.8,-5.37189,34.1027
29.9,-5.3806,34.1229
30.0,-5.38935,34.1432
30.1,-5.39815,34.1636
30.2,-5.407,34.184
30.3,-5.4159,34.2045
30.4,-5.42486,34.2251
30.5,-5.43386,34.2457
30.6,-5.44291,34.2664
30.7,-5.45202,34.2872
30.8,-5.46118,34.308
30.9,-5.47039,34.3289
31.0,-5.47965,34.3499
31.1,-5.48897,34.3709
31.2,-5.49834,34.392
31.3,-5.50776,34.4132
31.4,-5.51724,34.4344
31.5,-5.52677,34.4557
31.6,-5.53635,34.4771
31.7,-5.54599,34.4986
31.8,-5.55569,34.5201
31.9,-5.56543,34.5417
32.0,-5.57524,34.5633
32.1,-5.5851,34.585
32.2,-5.59502,34.6068
32.3,-5.60499,34.6287
32.4,-5.61502,34.6506
32.5,-5.62511,34.6726
32.6,-5.63526,34.6946
32.7,-5.64546,34.7167
32.8,-5.65572,34.7389
32.9,-5.66604,34.7611
33.0,-5.67642,34.7835
33.1,-5.68686,34.8058
33.2,-5.69736,34.8283
33.3,-5.70792,34.8508
33.4,-5.71854,34.8734
33.5,-5.72922,34.896
33.6,-5.73996,34.9187
33.7,-5.75076,34.9415
33.8,-5.76162,34.9644
33.9,-5.77255,34.9873
34.0,-5.78354,35.0102
34.1,-5.79459,35.0333
34.2,-5.80571,35.0564
34.3,-5.81689,35.0796
34.4,-5.82814,35.1028
34.5,-5.83945,35.1261
34.6,-5.85082,35.1495
34.7,-5.86226,35.1729
34.8,-5.87377,35.1964
34.9,-5.88534,35.2199
35.0,-5.89698,35.2436
35.1,-5.90869,35.2673
35.2,-5.92046,35.291
35.3,-5.93231,35.3148
35.4,-5.94422,35.3387
35.5,-5.9562,35.3627
35.6,-5.96825,35.3867
35.7,-5.98037,35.4107
35.8,-5.99256,35.4349
35.9,-6.00482,35.4591
36.0,-6.01715,35.4833
36.1,-6.02956,35.5077
36.2,-6.04204,35.532
36.3,-6.05459,35.5565
36.4,-6.06721,35.581
36.5,-6.07991,35.6056
36.6,-6.09268,35.6302
36.7,-6.10553,35.6549
36.8,-6.11845,35.6797
36.9,-6.13145,35.7045
37.0,-6.14452,35.7294
37.1,-6.15767,35.7544
37.2,-6.1709,35.7794
37.3,-6.18421,35.8044
37.4,-6.19759,35.8296
37.5,-6.21105,35.8548
37.6,-6.2246,35.88
37.7,-6.23822,35.9053
37.8,-6.25193,35.9307
37.9,-6.26571,35.9562
38.0,-6.27958,35.9816
38.1,-6.29353,36.0072
38.2,-6.30756,36.0328
38.3,-6.32168,36.0585
38.4,-6.33588,36.0842
38.5,-6.35017,36.11
38.6,-6.36454,36.1359
38.7,-6.379,36.1618
38.8,-6.39354,36.1878
38.9,-6.40818,36.2138
39.0,-6.4229,36.2399
39.1,-6.43771,36.266
39.2,-6.4526,36.2922
39.3,-6.46759,36.3185
39.4,-6.48267,36.3448
39.5,-6.49784,36.3712
39.6,-6.5131,36.3976
39.7,-6.52846,36.4241
39.8,-6.54391,36.4506
39.9,-6.55945,36.4772
40.0,-6.57509,36.5038
40.1,-6.59082,36.5306
40.2,-6.60665,36.5573
40.3,-6.62258,36.5841
40.4,-6.6386,36.611
40.5,-6.65472,36.6379
40.6,-6.67095,36.6649
40.7,-6.68727,36.6919
40.8,-6.70369,36.719
40.9,-6.72022,36.7462
41.0,-6.73684,36.7734
41.1,-6.75358,36.8006
41.2,-6.77041,36.8279
41.3,-6.78735,36.8552
41.4,-6.8044,36.8826
41.5,-6.82155,36.9101
41.6,-6.83881,36.9376
41.7,-6.85618,36.9651
41.8,-6.87365,36.9927
41.9,-6.89124,37.0204
42.0,-6.90894,37.0481
42.1,-6.92675,37.0759
42.2,-6.94467,37.1036
42.3,-6.96271,37.1315
42.4,-6.98086,37.1594
42.5,-6.99913,37.1873
42.6,-7.01751,37.2153
42.7,-7.03601,37.2434
42.8,-7.05463,37.2714
42.9,-7.07337,37.2996
43.0,-7.09223,37.3277
43.1,-7.11121,37.356
43.2,-7.13032,37.3842
43.3,-7.14955,37.4125
43.4,-7.1689,37.4409
43.5,-7.18838,37.4693
43.6,-7.20798,37.4977
43.7,-7.22772,37.5262
43.8,-7.24758,37.5547
43.9,-7.26758,37.5833
44.0,-7.2877,37.6119
44.1,-7.30796,37.6405
44.2,-7.32835,37.6692
44.3,-7.34888,37.6979
44.4,-7.36954,37.7267
44.5,-7.39034,37.7555
44.6,-7.41128,37.7844
44.7,-7.43235,37.8132
44.8,-7.45357,37.8421
44.9,-7.47494,37.8711
45.0,-7.49644,37.9001
45.1,-7.51809,37.9291
45.2,-7.53989,37.9582
45.3,-7.56183,37.9873
45.4,-7.58393,38.0164
45.5,-7.60617,38.0455
45.6,-7.62857,38.0747
45.7,-7.65112,38.104
45.8,-7.67382,38.1332
45.9,-7.69669,38.1625
46.0,-7.7197,38.1918
46.1,-7.74288,38.2212
46.2,-7.76622,38.2505
46.3,-7.78972,38.2799
46.4,-7.81339,38.3094
46.5,-7.83722,38.3388
46.6,-7.86122,38.3683
46.7,-7.88539,38.3978
46.8,-7.90972,38.4273
46.9,-7.93423,38.4569
47.0,-7.95892,38.4865
47.1,-7.98377,38.5161
47.2,-8.00881,38.5457
47.3,-8.03403,38.5753
47.4,-8.05942,38.605
47.5,-8.085,38.6346
47.6,-8.11077,38.6643
47.7,-8.13672,38.6941
47.8,-8.16286,38.7238
47.9,-8.18919,38.7535
48.0,-8.21571,38.7833
48.1,-8.24243,38.8131
48.2,-8.26934,38.8429
48.3,-8.29645,38.8727
48.4,-8.32377,38.9025
48.5,-8.35128,38.9323
48.6,-8.379,38.9621
48.7,-8.40693,38.992
48.8,-8.43507,39.0218
48.9,-8.46342,39.0517
49.0,-8.49198,39.0815
49.1,-8.52076,39.1114
49.2,-8.54976,39.1412
49.3,-8.57898,39.1711
49.4,-8.60843,39.201
49.5,-8.6381,39.2308
49.6,-8.668,39.2607
49.7,-8.69812,39.2906
49.8,-8.72849,39.3204
49.9,-8.75909,39.3503
50.0,-8.78993,39.3801
50.1,-8.82101,39.41
50.2,-8.85234,39.4398
50.3,-8.88392,39.4696
50.4,-8.91574,39.4995
50.5,-8.94782,39.5293
50.6,-8.98016,39.559
50.7,-9.01276,39.5888
50.8,-9.04562,39.6186
50.9,-9.07874,39.6483
51.0,-9.11214,39.678
51.1,-9.1458,39.7077
51.2,-9.17975,39.7374
51.3,-9.21397,39.7671
51.4,-9.24848,39.7967
51.5,-9.28327,39.8263
51.6,-9.31835,39.8559
51.7,-9.35372,39.8854
51.8,-9.3894,39.9149
51.9,-9.42537,39.9444
52.0,-9.46165,39.9739
52.1,-9.49823,40.0033
52.2,-9.53514,40.0326
52.3,-9.57235,40.062
52.4,-9.60989,40.0913
52.5,-9.64775,40.1205
52.6,-9.68595,40.1497
52.7,-9.72448,40.1789
52.8,-9.76334,40.208
52.9,-9.80255,40.237
53.0,-9.84211,40.266
53.1,-9.88202,40.295
53.2,-9.92229,40.3238
53.3,-9.96292,40.3527
53.4,-10.0039,40.3814
53.5,-10.0453,40.4101
53.6,-10.087,40.4388
53.7,-10.1292,40.4673
53.8,-10.1717,40.4958
53.9,-10.2146,40.5242
54.0,-10.2579,40.5526
54.1,-10.3016,40.5809
54.2,-10.3458,40.609
54.3,-10.3903,40.6371
54.4,-10.4353,40.6652
54.5,-10.4807,40.6931
54.6,-10.5265,40.7209
54.7,-10.5728,40.7487
54.8,-10.6196,40.7763
54.9,-10.6668,40.8038
55.0,-10.7144,40.8313
55.1,-10.7626,40.8586
55.2,-10.8112,40.8858
55.3,-10.8603,40.9129
55.4,-10.9099,40.9399
55.5,-10.96,40.9668
55.6,-11.0106,40.9935
55.7,-11.0617,41.0202
55.8,-11.1134,41.0466
55.9,-11.1656,41.073
56.0,-11.2183,41.0992
56.1,-11.2716,41.1253
56.2,-11.3255,41.1512
56.3,-11.3799,41.177
56.4,-11.4349,41.2026
56.5,-11.4905,41.2281
56.6,-11.5468,41.2534
56.7,-11.6036,41.2785
56.8,-11.6611,41.3034
56.9,-11.7192,41.3282
57.0,-11.7779,41.3528
57.1,-11.8373,41.3772
57.2,-11.8974,41.4014
57.3,-11.9582,41.4255
57.4,-12.0197,41.4493
57.5,-12.0819,41.4729
57.6,-12.1448,41.4963
57.7,-12.2084,41.5194
57.8,-12.2729,41.5424
57.9,-12.338,41.5651
58.0,-12.404,41.5875
58.1,-12.4708,41.6098
58.2,-12.5384,41.6317
58.3,-12.6068,41.6534
58.4,-12.6761,41.6748
58.5,-12.7462,41.696
58.6,-12.8172,41.7169
58.7,-12.8892,41.7374
58.8,-12.962,41.7577
58.9,-13.0359,41.7776
59.0,-13.1106,41.7973
59.1,-13.1864,41.8166
59.2,-13.2632,41.8356
59.3,-13.341,41.8542
59.4,-13.4199,41.8724
59.5,-13.4999,41.8903
59.6,-13.5809,41.9078
59.7,-13.6631,41.9249
59.8,-13.7465,41.9416
59.9,-13.831,41.9579
60.0,-13.9168,41.9737
60.1,-14.0038,41.9891
60.2,-14.0921,42.0041
60.3,-14.1818,42.0185
60.4,-14.2727,42.0325
60.5,-14.3651,42.0459
60.6,-14.4588,42.0589
60.7,-14.5541,42.0712
60.8,-14.6508,42.083
60.9,-14.7491,42.0943
61.0,-14.8489,42.1049
61.1,-14.9504,42.1149
61.2,-15.0535,42.1242
61.3,-15.1584,42.1329
61.4,-15.265,42.1408
61.5,-15.3735,42.1481
61.6,-15.4838,42.1546
61.7,-15.5961,42.1603
61.8,-15.7104,42.1651
61.9,-15.8267,42.1691
62.0,-15.9452,42.1723
62.1,-16.0659,42.1745
62.2,-16.1888,42.1757
62.3,-16.3141,42.176
62.4,-16.4418,42.1751
62.5,-16.5721,42.1732
62.6,-16.7049,42.1701
62.7,-16.8404,42.1659
62.8,-16.9788,42.1603
62.9,-17.12,42.1534
63.0,-17.2642,42.1451
63.1,-17.4116,42.1354
63.2,-17.5622,42.1241
63.3,-17.7163,42.1112
63.4,-17.8738,42.0965
63.5,-18.035,42.08
63.6,-18.2,42.0616
63.7,-18.3691,42.0412
63.8,-18.5423,42.0186
63.9,-18.7199,41.9937
64.0,-18.902,41.9663
64.1,-19.089,41.9363
64.2,-19.2809,41.9035
64.3,-19.4782,41.8678
64.4,-19.681,41.8288
64.5,-19.8897,41.7864
64.6,-20.1045,41.7402
64.7,-20.3258,41.6901
64.8,-20.5541,41.6356
64.9,-20.7896,41.5764
65.0,-21.0328,41.5121
65.1,-21.2843,41.4422
65.2,-21.5445,41.3662
65.3,-21.8141,41.2836
65.4,-22.0937,41.1935
65.5,-22.3839,41.0953
65.6,-22.6856,40.988
65.7,-22.9998,40.8707
65.8,-23.3273,40.7421
65.9,-23.6692,40.6008
66.0,-24.0269,40.4452
66.1,-24.4018,40.2733
66.2,-24.7954,40.0828
66.3,-25.2097,39.8709
66.4,-25.6468,39.6341
66.5,-26.1092,39.3682
66.6,-26.5999,39.068
66.7,-27.1224,38.727
66.8,-27.6808,38.3368
66.9,-28.2801,37.8866
67.0,-28.9265,37.3621
67.1,-29.6276,36.7442
67.2,-30.3929,36.0066
67.3,-31.2347,35.112
67.4,-32.169,34.0062
67.5,-33.217,32.607
67.6,-34.4076,30.7841
67.7,-35.7812,28.3191
67.8,-37.3951,24.8197
67.9,-39.3282,19.5201
68.0,-41.6696,10.7806
68.1,-44.3769,-5.07448
68.2,-46.5273,-33.7915
68.3,-45.9192,-69.0189
68.4,-43.297,-92.5789
68.5,-40.6464,-105.225
68.6,-38.4174,-112.432
68.7,-36.5664,-116.954
68.8,-35.0032,-120.02
68.9,-33.6571,-122.224
69.0,-32.4777,-123.881
69.1,-31.4294,-125.17
69.2,-30.4862,-126.201
69.3,-29.6292,-127.044
69.4,-28.8438,-127.747
69.5,-28.1189,-128.341
69.6,-27.4457,-128.851
69.7,-26.8172,-129.293
69.8,-26.2277,-129.68
69.9,-25.6726,-130.023
70.0,-25.1478,-130.328
70.1,-24.6501,-130.603
70.2,-24.1769,-130.851
70.3,-23.7255,-131.076
70.4,-23.2942,-131.283
70.5,-22.8809,-131.472
70.6,-22.4843,-131.648
70.7,-22.103,-131.811
70.8,-21.7356,-131.962
70.9,-21.3813,-132.104
71.0,-21.039,-132.238
71.1,-20.7078,-132.364
71.2,-20.3871,-132.483
71.3,-20.0761,-132.597
71.4,-19.7742,-132.705
71.5,-19.4809,-132.808
71.6,-19.1955,-132.907
71.7,-18.9178,-133.003
71.8,-18.6471,-133.095
71.9,-18.3832,-133.184
72.0,-18.1256,-133.27
72.1,-17.874,-133.354
72.2,-17.6282,-133.436
72.3,-17.3878,-133.516
72.4,-17.1526,-133.594
72.5,-16.9223,-133.671
72.6,-16.6967,-133.747
72.7,-16.4756,-133.821
72.8,-16.2587,-133.895
72.9,-16.0459,-133.968
73.0,-15.8371,-134.04
73.1,-15.632,-134.111
73.2,-15.4305,-134.183
73.3,-15.2324,-134.253
73.4,-15.0377,-134.324
73.5,-14.8461,-134.395
73.6,-14.6576,-134.465
73.7,-14.472,-134.536
73.8,-14.2893,-134.606
73.9,-14.1093,-134.677
74.0,-13.932,-134.748
74.1,-13.7572,-134.82
74.2,-13.5848,-134.892
74.3,-13.4148,-134.964
74.4,-13.2472,-135.037
74.5,-13.0817,-135.111
74.6,-12.9184,-135.185
74.7,-12.7572,-135.26
74.8,-12.5979,-135.336
74.9,-12.4407,-135.413
75.0,-12.2853,-135.49
75.1,-12.1318,-135.569
75.2,-11.98,-135.648
75.3,-11.83,-135.728
75.4,-11.6816,-135.81
75.5,-11.5349,-135.892
75.6,-11.3898,-135.976
75.7,-11.2462,-136.061
75.8,-11.1041,-136.147
75.9,-10.9635,-136.234
76.0,-10.8243,-136.323
76.1,-10.6864,-136.413
76.2,-10.55,-136.505
76.3,-10.4148,-136.598
76.4,-10.2809,-136.692
76.5,-10.1483,-136.788
76.6,-10.0169,-136.886
76.7,-9.88669,-136.985
76.8,-9.75764,-137.086
76.9,-9.62973,-137.188
77.0,-9.50292,-137.292
77.1,-9.3772,-137.398
77.2,-9.25255,-137.506
77.3,-9.12893,-137.616
77.4,-9.00632,-137.727
77.5,-8.88472,-137.841
77.6,-8.76408,-137.956
77.7,-8.6444,-138.073
77.8,-8.52565,-138.193
77.9,-8.40783,-138.315
78.0,-8.2909,-138.438
78.1,-8.17485,-138.564
78.2,-8.05966,-138.692
78.3,-7.94533,-138.822
78.4,-7.83183,-138.955
78.5,-7.71916,-139.09
78.6,-7.60729,-139.227
78.7,-7.49621,-139.367
78.8,-7.38591,-139.509
78.9,-7.27638,-139.654
79.0,-7.16761,-139.802
79.1,-7.05959,-139.951
79.2,-6.9523,-140.104
79.3,-6.84573,-140.259
79.4,-6.73988,-140.417
79.5,-6.63474,-140.578
79.6,-6.53029,-140.742
79.7,-6.42654,-140.908
79.8,-6.32346,-141.078
79.9,-6.22106,-141.25
80.0,-6.11933,-141.425
80.1,-6.01826,-141.604
80.2,-5.91784,-141.785
80.3,-5.81808,-141.97
80.4,-5.71895,-142.158
80.5,-5.62047,-142.349
80.6,-5.52263,-142.543
80.7,-5.42542,-142.741
80.8,-5.32883,-142.943
80.9,-5.23288,-143.147
81.0,-5.13754,-143.355
81.1,-5.04283,-143.567
81.2,-4.94874,-143.782
81.3,-4.85527,-144.001
81.4,-4.76241,-144.224
81.5,-4.67018,-144.451
81.6,-4.57856,-144.681
81.7,-4.48755,-144.915
81.8,-4.39717,-145.153
81.9,-4.30741,-145.395
82.0,-4.21827,-145.641
82.1,-4.12975,-145.891
82.2,-4.04186,-146.145
82.3,-3.9546,-146.403
82.4,-3.86798,-146.665
82.5,-3.78199,-146.932
82.6,-3.69664,-147.203
82.7,-3.61194,-147.479
82.8,-3.5279,-147.758
82.9,-3.44451,-148.042
83.0,-3.36178,-148.331
83.1,-3.27972,-148.624
83.2,-3.19834,-148.922
83.3,-3.11765,-149.225
83.4,-3.03765,-149.532
83.5,-2.95835,-149.843
83.6,-2.87976,-150.16
83.7,-2.80189,-150.481
83.8,-2.72475,-150.807
83.9,-2.64835,-151.138
84.0,-2.5727,-151.474
84.1,-2.49781,-151.815
84.2,-2.4237,-152.16
84.3,-2.35037,-152.511
84.4,-2.27783,-152.867
84.5,-2.20611,-153.228
84.6,-2.13521,-153.593
84.7,-2.06515,-153.964
84.8,-1.99594,-154.34
84.9,-1.9276,-154.721
85.0,-1.86014,-155.107
85.1,-1.79358,-155.499
85.2,-1.72792,-155.895
85.3,-1.6632,-156.297
85.4,-1.59943,-156.703
85.5,-1.53661,-157.115
85.6,-1.47478,-157.532
85.7,-1.41394,-157.954
85.8,-1.35412,-158.381
85.9,-1.29533,-158.813
86.0,-1.23759,-159.25
86.1,-1.18093,-159.693
86.2,-1.12535,-160.14
86.3,-1.07088,-160.592
86.4,-1.01753,-161.049
86.5,-0.965335,-161.511
86.6,-0.914303,-161.978
86.7,-0.864455,-162.449
86.8,-0.815812,-162.925
86.9,-0.768393,-163.406
87.0,-0.722217,-163.891
87.1,-0.677304,-164.381
87.2,-0.633672,-164.875
87.3,-0.591342,-165.374
87.4,-0.550332,-165.877
87.5,-0.510661,-166.383
87.6,-0.472348,-166.894
87.7,-0.43541,-167.409
87.8,-0.399865,-167.927
87.9,-0.365732,-168.449
88.0,-0.333027,-168.975
88.1,-0.301767,-169.504
88.2,-0.271968,-170.037
88.3,-0.243646,-170.572
88.4,-0.216816,-171.11
88.5,-0.191492,-171.652
88.6,-0.167688,-172.196
88.7,-0.145418,-172.742
88.8,-0.124693,-173.291
88.9,-0.105526,-173.842
89.0,-0.0879276,-174.396
89.1,-0.0719077,-174.951
89.2,-0.0574756,-175.507
89.3,-0.0446398,-176.065
89.4,-0.0334078,-176.625
89.5,-0.0237862,-177.186
89.6,-0.0157807,-177.747
89.7,-0.00939606,-178.31
89.8,-0.004636,-178.873
89.9,-0.00150337,-179.436
90.0,0.0,-180.0
